# Onda Corporation
# Hydrophone Calibration Data
# 
Calibration_DATE	11-Jun-2025
# 
# Hydrophone description
HYD_MFG	Onda
HYD_MODEL	HNR
HYD_APERTURE_NOM_UM	0500
HYD_SN	2547
HYD_POLARITY	Positive
# 
# External preamplifier description
AMP_MFG	NONE
AMP_MODEL	NONE
AMP_SN	NONE
AMP_GAIN_NOM_DB	NONE
AMP_BW_MHZ	NONE
AMP_OUTPUT_IMP_NOM_OHMS	NONE
# 
# Cable/adaptor between hydrophone and preamplifier
CA_BWT_HYD_AMP	NONE 
# 
# Environment
ELECTRICAL_LOAD	OpenCircuit
WATER_TEMP_DEGC	23.5
WATER_RESISTIVITY_MOHMS-CM	3.0
#
# Calibration data
# Freq(MHz) Sens(dB re. 1V/uPa) Sens(V/Pa) Sens(V^2cm^2/W) Cap(pF)
#
DATA_FIELDS	5
DATA_FIELD	FREQ_MHz
DATA_FIELD	SENS_DB
DATA_FIELD	SENS_VPERPA
DATA_FIELD	SENS_V2CM2PERW
DATA_FIELD	CAP_PF
# End of file header
HEADER_END	0
 0.250	 -254.05	  1.983E-007	5.900E-004	    186.584
 0.300	 -252.50	  2.370E-007	8.428E-004	    186.454
 0.350	 -252.35	  2.413E-007	8.737E-004	    186.327
 0.400	 -251.55	  2.645E-007	1.049E-003	    186.204
 0.450	 -251.06	  2.800E-007	1.176E-003	    186.085
 0.500	 -250.97	  2.827E-007	1.198E-003	    185.970
 0.550	 -250.70	  2.918E-007	1.277E-003	    185.858
 0.600	 -250.62	  2.944E-007	1.300E-003	    185.750
 0.650	 -250.58	  2.959E-007	1.313E-003	    185.645
 0.700	 -250.74	  2.903E-007	1.264E-003	    185.544
 0.750	 -250.88	  2.858E-007	1.225E-003	    185.446
 0.800	 -251.13	  2.776E-007	1.156E-003	    185.352
 0.850	 -251.47	  2.670E-007	1.069E-003	    185.262
 0.900	 -251.86	  2.552E-007	9.773E-004	    185.174
 0.950	 -252.34	  2.416E-007	8.756E-004	    185.091
 1.000	 -253.05	  2.226E-007	7.436E-004	    185.010
 1.050	 -253.55	  2.102E-007	6.629E-004	    184.932
 1.100	 -254.32	  1.924E-007	5.554E-004	    184.858
 1.150	 -254.68	  1.846E-007	5.111E-004	    184.788
 1.200	 -254.89	  1.800E-007	4.862E-004	    184.720
 1.250	 -255.25	  1.727E-007	4.476E-004	    184.656
 1.300	 -255.21	  1.736E-007	4.522E-004	    184.594
 1.350	 -255.19	  1.740E-007	4.544E-004	    184.536
 1.400	 -255.06	  1.766E-007	4.679E-004	    184.481
 1.450	 -254.86	  1.806E-007	4.895E-004	    184.429
 1.500	 -254.58	  1.867E-007	5.227E-004	    184.380
 1.550	 -254.38	  1.910E-007	5.470E-004	    184.333
 1.600	 -254.10	  1.973E-007	5.837E-004	    184.290
 1.650	 -253.90	  2.017E-007	6.105E-004	    184.250
 1.700	 -253.81	  2.039E-007	6.237E-004	    184.212
 1.750	 -253.54	  2.103E-007	6.635E-004	    184.178
 1.800	 -253.36	  2.149E-007	6.925E-004	    184.146
 1.850	 -253.26	  2.172E-007	7.078E-004	    184.117
 1.900	 -252.97	  2.248E-007	7.578E-004	    184.091
 1.950	 -252.80	  2.292E-007	7.878E-004	    184.068
 2.000	 -253.30	  2.163E-007	7.018E-004	    184.048
 2.050	 -253.83	  2.035E-007	6.211E-004	    184.028
 2.100	 -254.34	  1.918E-007	5.520E-004	    184.013
 2.150	 -254.04	  1.987E-007	5.922E-004	    184.000
 2.200	 -253.75	  2.053E-007	6.322E-004	    183.989
 2.250	 -253.71	  2.063E-007	6.381E-004	    183.981
 2.300	 -253.70	  2.065E-007	6.399E-004	    183.976
 2.350	 -253.77	  2.048E-007	6.290E-004	    183.974
 2.400	 -253.75	  2.053E-007	6.325E-004	    183.973
 2.450	 -253.73	  2.058E-007	6.351E-004	    183.975
 2.500	 -253.58	  2.095E-007	6.580E-004	    183.980
 2.550	 -253.54	  2.104E-007	6.640E-004	    183.987
 2.600	 -253.51	  2.111E-007	6.685E-004	    183.996
 2.650	 -253.45	  2.127E-007	6.784E-004	    184.008
 2.700	 -253.43	  2.130E-007	6.803E-004	    184.022
 2.750	 -253.38	  2.144E-007	6.894E-004	    184.038
 2.800	 -253.33	  2.155E-007	6.965E-004	    184.057
 2.850	 -253.34	  2.152E-007	6.949E-004	    184.078
 2.900	 -253.26	  2.171E-007	7.073E-004	    184.101
 2.950	 -253.28	  2.167E-007	7.042E-004	    184.126
 3.000	 -253.36	  2.147E-007	6.912E-004	    184.153
 3.050	 -253.36	  2.148E-007	6.923E-004	    184.183
 3.100	 -253.43	  2.131E-007	6.812E-004	    184.215
 3.150	 -253.43	  2.132E-007	6.815E-004	    184.248
 3.200	 -253.44	  2.129E-007	6.797E-004	    184.284
 3.250	 -253.47	  2.120E-007	6.742E-004	    184.322
 3.300	 -253.47	  2.121E-007	6.746E-004	    184.362
 3.350	 -253.51	  2.111E-007	6.685E-004	    184.404
 3.400	 -253.54	  2.105E-007	6.645E-004	    184.448
 3.450	 -253.56	  2.098E-007	6.604E-004	    184.493
 3.500	 -253.69	  2.067E-007	6.412E-004	    184.541
 3.550	 -253.82	  2.036E-007	6.219E-004	    184.591
 3.600	 -253.91	  2.015E-007	6.092E-004	    184.643
 3.650	 -253.94	  2.009E-007	6.056E-004	    184.696
 3.700	 -253.83	  2.034E-007	6.205E-004	    184.752
 3.750	 -253.71	  2.064E-007	6.390E-004	    184.809
 3.800	 -253.55	  2.101E-007	6.622E-004	    184.868
 3.850	 -253.39	  2.140E-007	6.871E-004	    184.929
 3.900	 -253.30	  2.162E-007	7.011E-004	    184.991
 3.950	 -253.20	  2.188E-007	7.181E-004	    185.056
 4.000	 -253.06	  2.224E-007	7.423E-004	    185.122
 4.050	 -253.01	  2.237E-007	7.504E-004	    185.190
 4.100	 -252.92	  2.259E-007	7.655E-004	    185.259
 4.150	 -252.93	  2.257E-007	7.642E-004	    185.331
 4.200	 -252.98	  2.243E-007	7.547E-004	    185.404
 4.250	 -252.93	  2.256E-007	7.634E-004	    185.478
 4.300	 -253.24	  2.179E-007	7.119E-004	    185.554
 4.350	 -253.37	  2.144E-007	6.898E-004	    185.632
 4.400	 -253.37	  2.145E-007	6.899E-004	    185.712
 4.450	 -253.27	  2.171E-007	7.071E-004	    185.793
 4.500	 -253.31	  2.161E-007	7.006E-004	    185.876
 4.550	 -253.22	  2.184E-007	7.154E-004	    185.960
 4.600	 -253.19	  2.191E-007	7.202E-004	    186.046
 4.650	 -252.98	  2.244E-007	7.557E-004	    186.133
 4.700	 -253.11	  2.212E-007	7.338E-004	    186.222
 4.750	 -253.29	  2.166E-007	7.037E-004	    186.312
 4.800	 -253.27	  2.170E-007	7.064E-004	    186.404
 4.850	 -253.25	  2.176E-007	7.105E-004	    186.497
 4.900	 -253.12	  2.209E-007	7.321E-004	    186.592
 4.950	 -253.08	  2.217E-007	7.376E-004	    186.688
 5.000	 -253.17	  2.195E-007	7.225E-004	    186.786
 5.050	 -253.21	  2.185E-007	7.164E-004	    186.885
 5.100	 -253.07	  2.220E-007	7.393E-004	    186.986
 5.150	 -252.77	  2.298E-007	7.920E-004	    187.087
 5.200	 -252.72	  2.313E-007	8.026E-004	    187.191
 5.250	 -252.79	  2.293E-007	7.885E-004	    187.296
 5.300	 -252.62	  2.339E-007	8.203E-004	    187.402
 5.350	 -252.58	  2.349E-007	8.280E-004	    187.509
 5.400	 -252.43	  2.389E-007	8.563E-004	    187.618
 5.450	 -252.44	  2.388E-007	8.553E-004	    187.728
 5.500	 -252.42	  2.392E-007	8.583E-004	    187.839
 5.550	 -252.35	  2.412E-007	8.724E-004	    187.952
 5.600	 -252.43	  2.390E-007	8.572E-004	    188.066
 5.650	 -252.47	  2.380E-007	8.500E-004	    188.181
 5.700	 -252.46	  2.382E-007	8.509E-004	    188.298
 5.750	 -252.51	  2.368E-007	8.410E-004	    188.416
 5.800	 -252.51	  2.368E-007	8.415E-004	    188.535
 5.850	 -252.50	  2.371E-007	8.434E-004	    188.655
 5.900	 -252.49	  2.375E-007	8.461E-004	    188.777
 5.950	 -252.52	  2.367E-007	8.401E-004	    188.900
 6.000	 -252.53	  2.363E-007	8.377E-004	    189.024
 6.050	 -252.51	  2.368E-007	8.414E-004	    189.149
 6.100	 -252.59	  2.346E-007	8.259E-004	    189.276
 6.150	 -252.68	  2.322E-007	8.090E-004	    189.404
 6.200	 -252.71	  2.314E-007	8.031E-004	    189.533
 6.250	 -252.66	  2.328E-007	8.127E-004	    189.663
 6.300	 -252.62	  2.339E-007	8.206E-004	    189.794
 6.350	 -252.68	  2.324E-007	8.101E-004	    189.927
 6.400	 -252.74	  2.307E-007	7.985E-004	    190.060
 6.450	 -252.63	  2.335E-007	8.179E-004	    190.195
 6.500	 -252.58	  2.350E-007	8.286E-004	    190.331
 6.550	 -252.62	  2.338E-007	8.201E-004	    190.469
 6.600	 -252.56	  2.355E-007	8.322E-004	    190.607
 6.650	 -252.55	  2.358E-007	8.338E-004	    190.747
 6.700	 -252.44	  2.388E-007	8.553E-004	    190.887
 6.750	 -252.39	  2.401E-007	8.648E-004	    191.029
 6.800	 -252.46	  2.383E-007	8.515E-004	    191.172
 6.850	 -252.45	  2.385E-007	8.531E-004	    191.316
 6.900	 -252.44	  2.388E-007	8.555E-004	    191.462
 6.950	 -252.41	  2.397E-007	8.615E-004	    191.608
 7.000	 -252.32	  2.420E-007	8.787E-004	    191.756
 7.050	 -252.30	  2.427E-007	8.834E-004	    191.904
 7.100	 -252.29	  2.430E-007	8.860E-004	    192.054
 7.150	 -252.32	  2.422E-007	8.798E-004	    192.205
 7.200	 -252.33	  2.417E-007	8.765E-004	    192.357
 7.250	 -252.24	  2.443E-007	8.954E-004	    192.510
 7.300	 -252.16	  2.465E-007	9.114E-004	    192.665
 7.350	 -252.12	  2.479E-007	9.216E-004	    192.820
 7.400	 -252.09	  2.486E-007	9.267E-004	    192.977
 7.450	 -252.09	  2.485E-007	9.260E-004	    193.135
 7.500	 -252.11	  2.480E-007	9.227E-004	    193.293
 7.550	 -252.09	  2.486E-007	9.270E-004	    193.453
 7.600	 -252.10	  2.482E-007	9.243E-004	    193.614
 7.650	 -252.11	  2.480E-007	9.228E-004	    193.777
 7.700	 -252.07	  2.491E-007	9.310E-004	    193.940
 7.750	 -252.13	  2.475E-007	9.190E-004	    194.105
 7.800	 -252.17	  2.463E-007	9.102E-004	    194.270
 7.850	 -252.13	  2.474E-007	9.182E-004	    194.437
 7.900	 -252.19	  2.456E-007	9.049E-004	    194.605
 7.950	 -252.28	  2.432E-007	8.873E-004	    194.774
 8.000	 -252.31	  2.425E-007	8.821E-004	    194.944
 8.050	 -252.21	  2.452E-007	9.016E-004	    195.115
 8.100	 -252.09	  2.485E-007	9.265E-004	    195.288
 8.150	 -252.09	  2.485E-007	9.262E-004	    195.462
 8.200	 -252.14	  2.471E-007	9.160E-004	    195.636
 8.250	 -252.20	  2.454E-007	9.034E-004	    195.812
 8.300	 -252.11	  2.480E-007	9.226E-004	    195.990
 8.350	 -251.97	  2.519E-007	9.521E-004	    196.168
 8.400	 -252.00	  2.513E-007	9.471E-004	    196.347
 8.450	 -252.00	  2.512E-007	9.466E-004	    196.528
 8.500	 -251.93	  2.533E-007	9.623E-004	    196.710
 8.550	 -252.02	  2.506E-007	9.418E-004	    196.893
 8.600	 -252.13	  2.474E-007	9.181E-004	    197.077
 8.650	 -252.05	  2.497E-007	9.355E-004	    197.263
 8.700	 -252.02	  2.507E-007	9.430E-004	    197.449
 8.750	 -251.97	  2.521E-007	9.532E-004	    197.637
 8.800	 -252.03	  2.502E-007	9.393E-004	    197.826
 8.850	 -252.11	  2.479E-007	9.217E-004	    198.017
 8.900	 -252.07	  2.490E-007	9.304E-004	    198.208
 8.950	 -251.99	  2.515E-007	9.488E-004	    198.401
 9.000	 -251.92	  2.535E-007	9.636E-004	    198.596
 9.050	 -251.93	  2.533E-007	9.627E-004	    198.791
 9.100	 -251.92	  2.536E-007	9.647E-004	    198.988
 9.150	 -251.81	  2.567E-007	9.884E-004	    199.186
 9.200	 -251.85	  2.557E-007	9.808E-004	    199.385
 9.250	 -251.88	  2.548E-007	9.738E-004	    199.585
 9.300	 -251.80	  2.570E-007	9.909E-004	    199.787
 9.350	 -251.89	  2.544E-007	9.709E-004	    199.991
 9.400	 -251.95	  2.526E-007	9.572E-004	    200.195
 9.450	 -251.91	  2.537E-007	9.654E-004	    200.401
 9.500	 -251.93	  2.532E-007	9.620E-004	    200.608
 9.550	 -251.87	  2.549E-007	9.749E-004	    200.817
 9.600	 -251.81	  2.568E-007	9.896E-004	    201.027
 9.650	 -251.90	  2.542E-007	9.691E-004	    201.239
 9.700	 -251.94	  2.530E-007	9.601E-004	    201.452
 9.750	 -251.93	  2.533E-007	9.625E-004	    201.666
 9.800	 -251.84	  2.560E-007	9.828E-004	    201.881
 9.850	 -251.85	  2.555E-007	9.789E-004	    202.099
 9.900	 -251.97	  2.521E-007	9.531E-004	    202.317
 9.950	 -252.00	  2.511E-007	9.458E-004	    202.537
10.000	 -251.88	  2.546E-007	9.723E-004	    202.759
10.050	 -251.82	  2.565E-007	9.871E-004	    202.982
10.100	 -251.84	  2.559E-007	9.823E-004	    203.207
10.150	 -251.87	  2.549E-007	9.744E-004	    203.433
10.200	 -252.03	  2.503E-007	9.396E-004	    203.660
10.250	 -252.04	  2.500E-007	9.378E-004	    203.890
10.300	 -251.90	  2.540E-007	9.679E-004	    204.120
10.350	 -251.98	  2.519E-007	9.515E-004	    204.353
10.400	 -252.00	  2.513E-007	9.469E-004	    204.587
10.450	 -251.99	  2.515E-007	9.490E-004	    204.822
10.500	 -251.86	  2.551E-007	9.764E-004	    205.059
10.550	 -251.97	  2.521E-007	9.533E-004	    205.298
10.600	 -251.88	  2.546E-007	9.724E-004	    205.539
10.650	 -251.84	  2.559E-007	9.820E-004	    205.781
10.700	 -251.97	  2.519E-007	9.519E-004	    206.025
10.750	 -252.05	  2.499E-007	9.364E-004	    206.271
10.800	 -252.22	  2.449E-007	8.997E-004	    206.518
10.850	 -252.27	  2.436E-007	8.898E-004	    206.768
10.900	 -252.06	  2.494E-007	9.327E-004	    207.019
10.950	 -252.08	  2.490E-007	9.300E-004	    207.271
11.000	 -252.20	  2.456E-007	9.049E-004	    207.526
11.050	 -252.38	  2.403E-007	8.664E-004	    207.783
11.100	 -252.35	  2.413E-007	8.735E-004	    208.041
11.150	 -252.25	  2.442E-007	8.944E-004	    208.301
11.200	 -252.15	  2.470E-007	9.149E-004	    208.563
11.250	 -252.20	  2.455E-007	9.044E-004	    208.827
11.300	 -252.43	  2.390E-007	8.571E-004	    209.093
11.350	 -252.47	  2.379E-007	8.489E-004	    209.361
11.400	 -252.29	  2.428E-007	8.845E-004	    209.631
11.450	 -252.31	  2.424E-007	8.816E-004	    209.903
11.500	 -252.40	  2.400E-007	8.641E-004	    210.177
11.550	 -252.46	  2.382E-007	8.511E-004	    210.453
11.600	 -252.50	  2.373E-007	8.443E-004	    210.731
11.650	 -252.43	  2.392E-007	8.581E-004	    211.011
11.700	 -252.54	  2.362E-007	8.367E-004	    211.293
11.750	 -252.44	  2.387E-007	8.548E-004	    211.577
11.800	 -252.47	  2.379E-007	8.486E-004	    211.864
11.850	 -252.44	  2.387E-007	8.549E-004	    212.153
11.900	 -252.48	  2.377E-007	8.472E-004	    212.444
11.950	 -252.57	  2.353E-007	8.308E-004	    212.737
12.000	 -252.42	  2.394E-007	8.598E-004	    213.032
12.050	 -252.52	  2.365E-007	8.393E-004	    213.330
12.100	 -252.69	  2.321E-007	8.081E-004	    213.630
12.150	 -252.63	  2.337E-007	8.195E-004	    213.932
12.200	 -252.53	  2.363E-007	8.373E-004	    214.237
12.250	 -252.73	  2.310E-007	8.007E-004	    214.544
12.300	 -252.84	  2.280E-007	7.798E-004	    214.854
12.350	 -253.00	  2.238E-007	7.511E-004	    215.166
12.400	 -253.03	  2.231E-007	7.465E-004	    215.480
12.450	 -253.11	  2.211E-007	7.331E-004	    215.797
12.500	 -252.89	  2.266E-007	7.703E-004	    216.116
12.550	 -253.02	  2.233E-007	7.482E-004	    216.438
12.600	 -252.95	  2.252E-007	7.608E-004	    216.763
12.650	 -252.84	  2.279E-007	7.793E-004	    217.090
12.700	 -252.90	  2.264E-007	7.689E-004	    217.420
12.750	 -253.08	  2.218E-007	7.380E-004	    217.752
12.800	 -253.28	  2.168E-007	7.051E-004	    218.088
12.850	 -253.32	  2.157E-007	6.978E-004	    218.425
12.900	 -253.19	  2.191E-007	7.201E-004	    218.766
12.950	 -253.16	  2.197E-007	7.240E-004	    219.109
13.000	 -253.00	  2.240E-007	7.526E-004	    219.455
13.050	 -253.01	  2.237E-007	7.504E-004	    219.804
13.100	 -253.26	  2.172E-007	7.079E-004	    220.156
13.150	 -253.40	  2.139E-007	6.860E-004	    220.511
13.200	 -253.35	  2.150E-007	6.935E-004	    220.869
13.250	 -253.51	  2.110E-007	6.678E-004	    221.229
13.300	 -253.63	  2.081E-007	6.497E-004	    221.593
13.350	 -253.67	  2.072E-007	6.440E-004	    221.960
13.400	 -253.68	  2.069E-007	6.423E-004	    222.329
13.450	 -253.89	  2.021E-007	6.128E-004	    222.702
13.500	 -253.85	  2.029E-007	6.177E-004	    223.078
13.550	 -253.83	  2.034E-007	6.204E-004	    223.457
13.600	 -253.81	  2.039E-007	6.233E-004	    223.839
13.650	 -253.79	  2.045E-007	6.274E-004	    224.224
13.700	 -253.72	  2.061E-007	6.370E-004	    224.613
13.750	 -253.91	  2.015E-007	6.090E-004	    225.005
13.800	 -254.10	  1.973E-007	5.840E-004	    225.401
13.850	 -253.94	  2.010E-007	6.060E-004	    225.799
13.900	 -253.88	  2.022E-007	6.133E-004	    226.201
13.950	 -254.07	  1.979E-007	5.874E-004	    226.607
14.000	 -254.29	  1.930E-007	5.586E-004	    227.016
14.050	 -254.37	  1.912E-007	5.481E-004	    227.428
14.100	 -254.49	  1.886E-007	5.334E-004	    227.844
14.150	 -254.49	  1.887E-007	5.340E-004	    228.264
14.200	 -254.46	  1.891E-007	5.367E-004	    228.687
14.250	 -254.41	  1.904E-007	5.439E-004	    229.114
14.300	 -254.43	  1.899E-007	5.408E-004	    229.544
14.350	 -254.69	  1.844E-007	5.099E-004	    229.978
14.400	 -254.86	  1.807E-007	4.896E-004	    230.416
14.450	 -254.80	  1.819E-007	4.963E-004	    230.857
14.500	 -254.59	  1.865E-007	5.218E-004	    231.303
14.550	 -254.51	  1.881E-007	5.307E-004	    231.752
14.600	 -254.60	  1.863E-007	5.204E-004	    232.206
14.650	 -254.88	  1.803E-007	4.874E-004	    232.663
14.700	 -255.04	  1.770E-007	4.697E-004	    233.124
14.750	 -255.15	  1.747E-007	4.580E-004	    233.590
14.800	 -255.17	  1.743E-007	4.557E-004	    234.059
14.850	 -255.22	  1.734E-007	4.512E-004	    234.533
14.900	 -255.24	  1.730E-007	4.490E-004	    235.010
14.950	 -255.13	  1.752E-007	4.602E-004	    235.492
15.000	 -255.12	  1.754E-007	4.614E-004	    235.978
15.050	 -255.01	  1.775E-007	4.728E-004	    236.468
15.100	 -255.04	  1.770E-007	4.699E-004	    236.963
15.150	 -255.26	  1.726E-007	4.468E-004	    237.461
15.200	 -255.46	  1.686E-007	4.264E-004	    237.965
15.250	 -255.54	  1.671E-007	4.188E-004	    238.472
15.300	 -255.52	  1.675E-007	4.208E-004	    238.984
15.350	 -255.45	  1.688E-007	4.272E-004	    239.501
15.400	 -255.40	  1.698E-007	4.323E-004	    240.022
15.450	 -255.43	  1.692E-007	4.294E-004	    240.548
15.500	 -255.35	  1.709E-007	4.380E-004	    241.078
15.550	 -255.53	  1.674E-007	4.203E-004	    241.613
15.600	 -255.69	  1.643E-007	4.049E-004	    242.153
15.650	 -255.78	  1.625E-007	3.960E-004	    242.697
15.700	 -255.97	  1.590E-007	3.791E-004	    243.246
15.750	 -256.12	  1.563E-007	3.666E-004	    243.800
15.800	 -256.19	  1.551E-007	3.607E-004	    244.360
15.850	 -256.18	  1.553E-007	3.618E-004	    244.924
15.900	 -256.16	  1.557E-007	3.635E-004	    245.493
15.950	 -256.30	  1.531E-007	3.518E-004	    246.067
16.000	 -256.53	  1.492E-007	3.338E-004	    246.647
16.050	 -256.56	  1.486E-007	3.312E-004	    247.231
16.100	 -256.48	  1.499E-007	3.371E-004	    247.821
16.150	 -256.61	  1.477E-007	3.272E-004	    248.416
16.200	 -256.66	  1.469E-007	3.237E-004	    249.016
16.250	 -256.56	  1.486E-007	3.313E-004	    249.621
16.300	 -256.53	  1.491E-007	3.334E-004	    250.232
16.350	 -256.54	  1.490E-007	3.329E-004	    250.848
16.400	 -256.63	  1.473E-007	3.256E-004	    251.470
16.450	 -256.84	  1.439E-007	3.107E-004	    252.097
16.500	 -256.92	  1.426E-007	3.051E-004	    252.730
16.550	 -256.84	  1.438E-007	3.103E-004	    253.368
16.600	 -256.75	  1.454E-007	3.171E-004	    254.012
16.650	 -256.85	  1.437E-007	3.096E-004	    254.662
16.700	 -257.04	  1.406E-007	2.965E-004	    255.318
16.750	 -257.02	  1.408E-007	2.976E-004	    255.979
16.800	 -256.93	  1.425E-007	3.045E-004	    256.646
16.850	 -256.98	  1.416E-007	3.008E-004	    257.319
16.900	 -257.14	  1.390E-007	2.900E-004	    257.998
16.950	 -257.19	  1.382E-007	2.865E-004	    258.683
17.000	 -257.21	  1.379E-007	2.854E-004	    259.374
17.050	 -257.28	  1.367E-007	2.803E-004	    260.071
17.100	 -257.41	  1.347E-007	2.720E-004	    260.774
17.150	 -257.67	  1.308E-007	2.564E-004	    261.483
17.200	 -257.57	  1.323E-007	2.625E-004	    262.199
17.250	 -257.64	  1.312E-007	2.582E-004	    262.921
17.300	 -257.72	  1.300E-007	2.536E-004	    263.649
17.350	 -257.48	  1.337E-007	2.683E-004	    264.385
17.400	 -257.73	  1.298E-007	2.527E-004	    265.127
17.450	 -257.86	  1.279E-007	2.455E-004	    265.875
17.500	 -257.97	  1.264E-007	2.395E-004	    266.630
17.550	 -257.96	  1.265E-007	2.400E-004	    267.391
17.600	 -257.89	  1.275E-007	2.440E-004	    268.159
17.650	 -257.83	  1.283E-007	2.470E-004	    268.934
17.700	 -257.93	  1.270E-007	2.418E-004	    269.715
17.750	 -258.04	  1.253E-007	2.356E-004	    270.504
17.800	 -258.02	  1.257E-007	2.368E-004	    271.299
17.850	 -258.05	  1.252E-007	2.352E-004	    272.101
17.900	 -258.14	  1.239E-007	2.304E-004	    272.910
17.950	 -258.10	  1.244E-007	2.322E-004	    273.727
18.000	 -258.25	  1.223E-007	2.244E-004	    274.550
18.050	 -258.39	  1.204E-007	2.173E-004	    275.381
18.100	 -258.39	  1.203E-007	2.172E-004	    276.218
18.150	 -258.62	  1.172E-007	2.061E-004	    277.063
18.200	 -258.52	  1.186E-007	2.111E-004	    277.915
18.250	 -258.61	  1.174E-007	2.067E-004	    278.776
18.300	 -258.69	  1.163E-007	2.029E-004	    279.644
18.350	 -258.78	  1.151E-007	1.986E-004	    280.519
18.400	 -258.73	  1.158E-007	2.010E-004	    281.402
18.450	 -258.69	  1.162E-007	2.026E-004	    282.293
18.500	 -258.63	  1.171E-007	2.056E-004	    283.191
18.550	 -258.72	  1.159E-007	2.014E-004	    284.097
18.600	 -258.75	  1.154E-007	1.999E-004	    285.012
18.650	 -258.74	  1.156E-007	2.006E-004	    285.933
18.700	 -258.80	  1.149E-007	1.979E-004	    286.863
18.750	 -258.82	  1.145E-007	1.966E-004	    287.801
18.800	 -258.88	  1.138E-007	1.943E-004	    288.746
18.850	 -259.04	  1.117E-007	1.871E-004	    289.700
18.900	 -259.06	  1.114E-007	1.861E-004	    290.662
18.950	 -259.28	  1.087E-007	1.771E-004	    291.632
19.000	 -259.17	  1.101E-007	1.818E-004	    292.610
19.050	 -258.89	  1.136E-007	1.935E-004	    293.597
19.100	 -258.87	  1.139E-007	1.946E-004	    294.593
19.150	 -259.19	  1.097E-007	1.806E-004	    295.598
19.200	 -259.44	  1.067E-007	1.708E-004	    296.611
19.250	 -259.50	  1.060E-007	1.684E-004	    297.633
19.300	 -259.33	  1.080E-007	1.751E-004	    298.663
19.350	 -259.20	  1.096E-007	1.803E-004	    299.702
19.400	 -259.14	  1.104E-007	1.827E-004	    300.750
19.450	 -259.05	  1.116E-007	1.868E-004	    301.807
19.500	 -259.17	  1.100E-007	1.816E-004	    302.872
19.550	 -259.54	  1.054E-007	1.667E-004	    303.947
19.600	 -259.77	  1.027E-007	1.581E-004	    305.031
19.650	 -259.58	  1.049E-007	1.651E-004	    306.124
19.700	 -259.41	  1.071E-007	1.720E-004	    307.226
19.750	 -259.30	  1.084E-007	1.764E-004	    308.337
19.800	 -259.36	  1.077E-007	1.740E-004	    309.458
19.850	 -259.54	  1.055E-007	1.668E-004	    310.588
19.900	 -259.63	  1.044E-007	1.634E-004	    311.126
19.950	 -259.68	  1.038E-007	1.615E-004	    311.444
20.000	 -259.73	  1.031E-007	1.596E-004	    311.763
